# HDF: fcm_201403_060  
# /archive/messung/kmc/daten/2014/1Q/pilatus_201403_0961.tif
# Energy (eV)=8800 Distance (mm)=4.5326  Normalization factor =0.00050322454  Center=(497.5,538.2)  Binsize (nm-1)=0.0017
# Normalized by solid angle (1/distance^2), time (PilatusAcqTime_GRAL) and intensity (K4norm_mean)
# Detector quantum efficiency = 95.72% Monitor sensitivity (ph/s/A) = 4.538e+16 Sample thickness (mm) =1 Direct beam(photons * sr) = 0.5257
# q(nm-1)	I_norm	err_pois	err_stdv
0	0	937.45581	0
0.0017	0	495.8037	0
0.0034	0	363.48384	0
0.0051	0	297.92095	8.0343475
0.0068	109.08519	269.62176	85.546128
0.0085	55.29175	256.20154	59.202288
0.0102	46.584745	246.34798	52.554235
0.0119	151.03896	237.7486	87.616717
0.0136	131.67762	225.57854	78.247513
0.0153	122.04023	216.67654	72.504243
0.017	126.63855	208.59153	71.275734
0.0187	228.47979	195.55649	86.168418
0.0204	122.13321	173.6626	57.509566
0.0221	53.770081	168.39268	76.377105
0.0238	2070.8437	218.68423	1897.3647
0.0255	39549.625	844.23055	6719.0745
0.0272	95659.732	1296.2531	7836.7587
0.0289	158516.18	1811.9014	4898.8545
0.0306	159092.55	1724.0102	3275.4462
0.0323	159450.41	1676.1975	3958.0624
0.034	149040.85	1453.3434	3689.6385
0.0357	139178.7	1286.7348	3327.882
0.0374	128693.27	1184.0682	2875.7135
0.0391	117973.83	1106.7574	2674.909
0.0408	107495.69	1025.0217	2561.3146
0.0425	93643.704	927.4249	2438.1709
0.0442	85680.472	875.33846	2203.1079
0.0459	75198.192	797.1524	2105.0209
0.0476	66365.294	727.75629	1893.698
0.0493	56478.262	665.98677	1715.725
0.051	46814.662	593.9877	1539.9669
0.0527	40273.908	540.24522	1322.2835
0.0544	33948.365	484.78573	1174.2942
0.0561	28729.247	436.98106	1031.5077
0.0578	24752.952	394.35324	959.89902
0.0595	20329.122	347.34844	838.68132
0.0612	16460.296	309.80591	709.26643
0.0629	12997.896	270.97939	568.01842
0.0646	10363.82	238.30158	460.85854
0.0663	8336.3681	213.38966	396.45748
0.068	6566.5045	186.15548	314.2451
0.0697	5353.819	166.62657	261.21774
0.0714	4204.788	147.68563	213.48293
0.0731	3479.4523	133.7896	177.3332
0.0748	3030.1303	124.41774	148.28369
0.0765	2430.1727	112.42129	125.93466
0.0782	2393.6176	110.41609	119.67892
0.0799	2838.218	117.6297	132.40887
0.0816	2813.2942	115.37708	132.74041
0.0833	3116.5602	119.01823	144.12664
0.085	3546.6524	123.7952	148.89307
0.0867	3588.8322	123.29092	145.52442
0.0884	3783.5844	124.80848	152.112
0.0901	4298.9142	129.65825	153.59137
0.0918	4742.0863	135.57111	151.5422
0.0935	4613.6478	131.94748	154.8746
0.0952	4933.6812	134.61278	152.33278
0.0969	5068.0239	134.18028	150.54828
0.0986	5180.3746	135.05057	156.23464
0.1003	5254.8299	136.07684	158.7628
0.102	5057.306	132.32739	153.79112
0.1037	4974.5458	128.74141	148.19119
0.1054	4903.7595	127.06978	145.03315
0.1071	4676.6234	123.73482	141.75469
0.1088	4413.5651	119.21461	142.57571
0.1105	4221.4063	116.84096	143.22717
0.1122	3760.4551	109.52756	135.67758
0.1139	3676.7457	109.09718	129.19251
0.1156	3256.6932	102.1384	124.31229
0.1173	2842.5123	96.51319	114.58016
0.119	2562.7087	92.06452	104.50317
0.1207	2270.6133	87.614607	95.418502
0.1224	2129.8027	86.085632	92.830277
0.1241	1820.5762	80.914564	84.963487
0.1258	1540.7541	76.475503	79.199607
0.1275	1402.5522	74.980278	77.216424
0.1292	1256.9006	72.410271	69.892121
0.1309	1126.6844	70.410572	63.685618
0.1326	1014.5051	68.144015	58.523267
0.1343	1021.4847	67.922781	57.762862
0.136	1035.9097	69.134811	61.518781
0.1377	923.14884	67.625291	56.924653
0.1394	972.63368	68.386695	57.814204
0.1411	998.87124	68.761752	57.338387
0.1428	1016.381	68.509078	55.615665
0.1445	1068.5038	69.650618	58.706894
0.1462	1078.7513	69.343371	59.337235
0.1479	1182.0672	70.938239	64.062023
0.1496	1295.1639	72.278634	67.071062
0.1513	1348.5115	72.721923	68.144992
0.153	1390.8926	73.039046	70.725748
0.1547	1476.3563	74.201543	73.856889
0.1564	1525.149	74.754424	71.451566
0.1581	1392.4159	72.056674	66.287146
0.1598	1388.0063	72.665639	68.16016
0.1615	1478.3117	73.805329	70.588306
0.1632	1466.0042	73.552788	72.435219
0.1649	1538.8241	73.784282	73.17206
0.1666	1357.3584	69.494152	66.850954
0.1683	1373.6469	69.312087	66.078031
0.17	1334.9533	68.536173	66.016735
0.1717	1194.9713	65.361858	60.061484
0.1734	1192.3984	65.005507	57.933841
0.1751	1127.0189	64.419121	58.013548
0.1768	1023.9737	62.676552	54.686716
0.1785	957.74201	61.32503	50.980096
0.1802	911.5233	60.189823	48.135322
0.1819	901.40451	60.085954	49.678062
0.1836	817.84055	59.039104	47.419326
0.1853	802.22121	58.822763	46.964329
0.187	763.64792	57.917218	45.171236
0.1887	680.23149	57.210891	45.251805
0.1904	653.43428	56.778921	43.687218
0.1921	588.86251	55.367129	39.523218
0.1938	583.63083	55.204533	39.54711
0.1955	553.58697	55.351594	38.290811
0.1972	533.51355	55.527789	36.617033
0.1989	556.04442	55.912019	38.005969
0.2006	619.02292	56.232173	39.789653
0.2023	615.6442	56.526825	40.518859
0.204	547.42959	56.113839	39.148556
0.2057	655.93934	56.835486	41.270602
0.2074	671.135	56.752393	40.990072
0.2091	598.11576	55.989367	38.83871
0.2108	667.95859	57.228799	42.999724
0.2125	678.8792	57.227777	43.974652
0.2142	662.05876	56.472277	41.536731
0.2159	709.32547	56.69686	41.442548
0.2176	733.42586	57.546196	44.603649
0.2193	681.27635	56.465999	41.450302
0.221	757.37511	57.257359	43.490777
0.2227	700.88855	56.315485	41.972125
0.2244	655.19082	55.015565	39.455467
0.2261	658.99926	54.448552	39.359208
0.2278	663.05672	53.922106	39.144899
0.2295	698.26617	53.885969	40.643878
0.2312	650.57796	52.846784	38.06421
0.2329	614.63878	52.275918	37.757485
0.2346	664.49962	52.646897	39.502412
0.2363	592.55439	51.457223	35.804498
0.238	549.9244	51.086504	35.32429
0.2397	574.78859	50.893749	34.835355
0.2414	548.73853	50.169814	33.174694
0.2431	498.58974	49.741619	32.671139
0.2448	525.14509	49.639997	33.244581
0.2465	528.88956	49.540802	33.366247
0.2482	509.63715	49.072158	32.103456
0.2499	445.598	48.388106	30.223134
0.2516	459.86969	48.564901	31.532449
0.2533	465.9704	48.280136	31.356483
0.255	455.52278	48.047394	30.832434
0.2567	449.63456	47.644354	29.990017
0.2584	417.47633	47.16854	29.507965
0.2601	499.45268	47.592038	31.98652
0.2618	484.16421	47.090255	30.431702
0.2635	465.04404	46.907094	29.482843
0.2652	440.85364	46.438191	28.194834
0.2669	393.05034	46.02854	27.737639
0.2686	455.1163	46.165537	28.459349
0.2703	448.79674	46.023329	28.983183
0.272	459.21312	45.934531	29.46369
0.2737	480.62939	45.985692	30.004693
0.2754	495.80029	46.062456	30.717168
0.2771	468.73693	45.19863	28.312613
0.2788	484.60089	45.379415	29.132395
0.2805	460.2149	45.157848	29.089908
0.2822	472.92442	45.005087	28.99599
0.2839	462.8401	44.902646	29.503673
0.2856	445.96625	44.465645	28.438499
0.2873	449.16368	44.258262	27.4937
0.289	435.86777	44.02176	27.194979
0.2907	437.74835	43.906187	27.271278
0.2924	439.05185	43.79973	27.36817
0.2941	427.48269	43.71449	27.151167
0.2958	422.72198	43.407099	26.601366
0.2975	378.72732	42.84067	24.889957
0.2992	409.07701	42.850364	25.058029
0.3009	414.59221	42.935053	25.862172
0.3026	376.03248	42.775366	25.491976
0.3043	356.41677	42.352857	24.667435
0.306	354.14818	42.100934	23.715856
0.3077	354.63209	41.986146	23.919491
0.3094	421.70125	42.162304	24.90197
0.3111	407.7166	41.970259	24.765971
0.3128	390.00294	41.814507	24.814676
0.3145	399.42329	41.888795	25.241657
0.3162	353.46265	41.294343	22.907486
0.3179	355.56251	41.137695	22.978846
0.3196	393.44446	41.183808	23.808817
0.3213	373.2396	41.029403	23.588371
0.323	392.10209	41.046481	23.602629
0.3247	356.07511	40.760969	23.267012
0.3264	351.7082	40.534279	22.924377
0.3281	378.02399	40.604561	23.706645
0.3298	398.41994	40.476674	23.910854
0.3315	376.64718	40.349522	23.49549
0.3332	335.37704	39.982556	22.295667
0.3349	378.35733	40.148846	22.953276
0.3366	374.17946	40.030719	22.94336
0.3383	363.1049	39.915646	23.3135
0.34	359.15055	39.588185	22.5211
0.3417	376.83125	39.603823	22.864951
0.3434	399.78624	39.72332	23.500909
0.3451	393.4346	39.496886	23.082765
0.3468	370.8677	39.317722	22.516007
0.3485	368.31994	39.190319	22.56826
0.3502	393.7489	39.297164	23.348355
0.3519	354.7267	38.825696	21.800438
0.3536	357.86423	38.869628	22.525792
0.3553	345.04103	38.619579	21.571905
0.357	378.95367	38.747815	22.514242
0.3587	344.20084	38.55912	22.107796
0.3604	336.53197	38.326948	21.616335
0.3621	340.84442	38.308948	22.194169
0.3638	352.69832	38.301083	21.948555
0.3655	314.76496	37.765454	19.843358
0.3672	324.6988	37.697825	20.009323
0.3689	365.22783	37.968429	21.515171
0.3706	349.69614	37.758355	21.151681
0.3723	334.92313	37.596347	20.840049
0.374	319.71829	37.390904	20.44818
0.3757	308.95953	37.238909	19.62805
0.3774	334.67184	37.357613	20.350171
0.3791	307.8924	36.998224	19.243915
0.3808	324.79382	37.023704	19.760421
0.3825	328.49107	36.944712	20.117419
0.3842	327.58866	36.905422	20.092264
0.3859	331.32431	36.789342	20.049043
0.3876	370.45776	36.949928	20.913565
0.3893	325.13586	36.577831	19.583591
0.391	317.61745	36.519412	19.741127
0.3927	331.34791	36.575244	20.509925
0.3944	320.96513	36.251984	19.66225
0.3961	351.15252	36.44032	20.565898
0.3978	341.81191	36.31187	20.259133
0.3995	341.23671	36.148711	19.614176
0.4012	309.24164	35.903207	18.901789
0.4029	288.20692	35.680433	18.125931
0.4046	302.08167	35.758726	18.454097
0.4063	327.94631	35.786916	19.649406
0.408	347.66972	35.858424	20.247105
0.4097	326.12038	35.641213	19.317292
0.4114	327.54134	35.598018	19.242625
0.4131	299.64433	35.266174	18.063964
0.4148	285.00652	35.089428	17.792243
0.4165	305.80048	35.163837	18.608968
0.4182	340.73139	35.380189	19.638413
0.4199	323.32661	35.196765	19.212568
0.4216	313.02461	35.046032	18.923104
0.4233	310.2391	34.962536	18.996612
0.425	306.65269	34.854736	18.739686
0.4267	300.26783	34.727588	18.369174
0.4284	316.32882	34.731697	18.674333
0.4301	306.52397	34.564159	18.115839
0.4318	302.9383	34.569989	18.221687
0.4335	325.48223	34.680647	19.068777
0.4352	305.22459	34.349199	17.863837
0.4369	298.54848	34.309676	18.033127
0.4386	301.46016	34.202186	17.821983
0.4403	309.63731	34.176128	18.071085
0.442	309.08988	34.108489	18.242196
0.4437	301.7431	34.04217	18.122842
0.4454	319.6718	34.224669	19.136206
0.4471	305.04145	33.942713	17.995364
0.4488	291.28463	33.714065	17.426354
0.4505	309.95741	33.801845	17.982684
0.4522	288.73785	33.628625	17.257632
0.4539	337.47186	33.801848	18.657398
0.4556	319.90721	33.620212	18.222125
0.4573	292.73988	33.480391	17.463122
0.459	298.34691	33.430762	17.418194
0.4607	303.53858	33.398401	17.712494
0.4624	316.59559	33.351167	17.921961
0.4641	291.83007	33.184496	17.145507
0.4658	283.63273	33.201208	16.9948
0.4675	309.9283	33.190448	17.576032
0.4692	315.00247	33.044719	17.723683
0.4709	316.57996	33.014375	17.633526
0.4726	296.38596	32.932888	17.113445
0.4743	290.58746	32.816638	16.917434
0.476	292.86798	32.779176	16.928844
0.4777	273.46138	32.645317	16.435665
0.4794	271.04115	32.534019	16.303948
0.4811	303.6448	32.552293	16.755414
0.4828	302.49283	32.485027	16.687813
0.4845	283.19721	32.406132	16.37119
0.4862	304.78667	32.549428	17.376031
0.4879	297.93718	32.33713	16.794114
0.4896	291.92021	32.245768	16.670392
0.4913	292.26847	32.23128	16.648595
0.493	288.24488	32.121944	16.382544
0.4947	288.14293	32.163452	16.389112
0.4964	292.54294	32.455483	16.629007
0.4981	308.19251	32.638048	17.135444
0.4998	307.24074	32.750845	17.230795
0.5015	293.51238	32.815102	16.992788
0.5032	284.10394	32.702275	16.744078
0.5049	294.20565	32.928813	17.503598
0.5066	300.88668	32.948393	17.328196
0.5083	297.72744	32.950033	17.231929
0.51	293.44739	32.899768	16.705998
0.5117	279.15778	32.847293	16.480108
0.5134	271.52693	32.866214	16.374849
0.5151	294.11785	33.063452	17.365915
0.5168	308.36917	33.091764	17.363933
0.5185	290.12322	32.989272	17.186133
0.5202	276.48914	32.967422	16.848506
0.5219	285.71024	33.050593	16.982187
0.5236	278.39357	32.745426	16.399757
0.5253	273.50562	32.457974	16.024411
0.527	277.48284	32.311324	16.174615
0.5287	290.13	32.287042	16.547894
0.5304	319.43218	32.214235	17.148303
0.5321	323.1771	32.09743	17.49634
0.5338	302.50891	31.929959	16.616313
0.5355	302.77825	31.786999	16.252781
0.5372	292.01899	31.711657	16.315323
0.53889997	280.95581	31.636285	16.529905
0.5406	293.55517	31.566232	16.52779
0.54230003	289.83077	31.508245	16.240245
0.544	273.94547	31.333223	15.610617
0.54569997	265.9565	31.197278	15.403281
0.5474	287.27875	31.267064	16.350505
0.54910003	298.8782	31.27802	16.394313
0.5508	286.28126	31.065751	15.448486
0.55249997	253.96902	30.866717	14.656882
0.5542	280.69007	31.2449	15.534669
0.55590003	283.26523	31.410946	15.967791
0.5576	269.88915	31.347796	15.615567
0.55929997	290.39369	31.589221	16.400749
0.561	275.04106	31.548283	15.84931
0.56270003	299.46649	31.771205	16.430529
0.5644	286.03374	31.658882	16.240058
0.56609997	288.36978	31.642125	16.136063
0.5678	280.28162	31.638091	15.82477
0.56950003	276.26066	31.689193	15.662418
0.5712	273.40891	31.680261	15.886874
0.57289997	279.40592	31.732207	16.288696
0.5746	279.88802	31.696125	15.598045
0.57630003	305.5425	31.798751	16.482046
0.578	322.88916	31.871451	17.028379
0.57969997	301.54426	31.832493	16.845534
0.5814	303.78359	31.755015	16.604007
0.58310003	273.11738	31.374653	15.533753
0.5848	265.51206	31.12336	15.42675
0.58649997	284.42792	31.007671	15.679829
0.5882	252.8726	30.742294	14.851832
0.58990003	267.24374	30.772416	15.044918
0.5916	271.93426	30.641952	15.16628
0.59329997	295.12665	30.659832	15.987142
0.595	276.7822	30.479767	15.489124
0.59670003	282.12593	30.437213	15.557692
0.5984	283.27932	30.372731	15.502171
0.60009997	286.54646	30.306988	15.765084
0.6018	279.97819	30.13678	15.108533
0.60350003	291.10454	30.178601	15.506478
0.6052	287.66284	30.078081	15.498359
0.60689997	288.18794	30.037797	15.594802
0.6086	282.84501	29.953356	15.412209
0.61030003	279.65042	29.889363	15.296862
0.612	299.6661	29.883761	15.726923
0.61369997	292.21547	29.766314	15.332812
0.6154	297.1491	29.747397	15.550841
0.61710003	294.19537	29.648219	15.642956
0.6188	300.19205	29.658786	15.528151
0.62049997	301.13811	29.562772	15.349238
0.6222	289.40766	29.469335	15.149245
0.62390003	282.66293	29.402594	14.963171
0.6256	266.54443	29.276576	14.426006
0.62729997	270.90284	29.303446	14.706681
0.629	275.77308	29.111073	14.258951
0.63070003	260.52785	29.05366	14.126034
0.6324	270.38627	29.074984	14.404718
0.63409997	301.81079	29.123792	14.987393
0.6358	288.55627	29.013596	14.877259
0.63750003	283.13748	28.943794	14.531173
0.6392	275.56618	28.905585	14.445344
0.64089997	265.20215	28.826082	14.47467
0.6426	265.00852	28.730252	14.018573
0.64430003	272.63309	28.687084	14.059858
0.646	290.9823	28.765824	14.836913
0.64769997	277.1334	28.658032	14.568357
0.6494	276.90222	28.641137	14.669699
0.65110003	271.65586	28.54559	14.271469
0.6528	266.05303	28.460174	13.93802
0.65449997	266.47526	28.382711	13.813316
0.6562	277.70398	28.358041	14.057793
0.65790003	284.15001	28.402773	14.363586
0.6596	277.2113	28.373502	14.216
0.66129997	269.68069	28.26374	14.19503
0.663	280.963	28.212392	14.296798
0.66470003	283.85508	28.17024	14.348127
0.6664	293.63802	28.203962	14.434578
0.66809997	251.43639	27.978359	13.419633
0.6698	262.48294	28.010087	13.751501
0.67150003	261.6076	27.947281	13.663149
0.6732	274.57734	27.968794	13.87702
0.67489997	264.99561	27.857737	13.627477
0.6766	266.38465	27.836594	13.960985
0.67830003	270.48073	27.796152	13.816812
0.68	278.45924	27.842592	14.142622
0.68169997	249.51719	27.706365	13.62691
0.6834	267.07696	27.708867	13.909301
0.68510003	280.84488	27.670228	14.131782
0.6868	283.89396	27.625698	13.919165
0.68849997	273.97422	27.605078	13.981516
0.6902	287.60196	27.579577	14.045867
0.69190003	280.05731	27.513582	13.833534
0.6936	261.18072	27.406097	13.362539
0.69529997	279.70739	27.449409	13.895487
0.697	281.17505	27.394928	13.952975
0.69870003	267.61989	27.306488	13.568754
0.7004	276.28281	27.366584	13.79978
0.70209997	279.60455	27.265613	13.822849
0.7038	278.87916	27.211151	13.767354
0.70550003	271.52036	27.156275	13.453191
0.7072	260.63581	27.135381	13.535833
0.70889997	287.7727	27.174005	13.905437
0.7106	275.03777	27.076149	13.749593
0.71230003	257.99057	26.965082	13.137856
0.714	257.77308	26.922188	13.068672
0.71569997	259.74208	26.91415	13.01995
0.7174	243.11451	26.782134	12.689702
0.71910003	255.57038	26.779254	12.918633
0.7208	273.49351	26.84449	13.383696
0.72249997	281.29151	26.835908	13.742202
0.7242	278.80241	26.843759	13.87413
0.72590003	259.83311	26.679778	13.177069
0.7276	268.7347	26.698019	13.267638
0.72929997	282.79316	26.74558	13.672802
0.731	282.59722	26.647004	13.652737
0.73270003	280.36864	26.587987	13.555218
0.7344	276.17668	26.582814	13.412307
0.73609997	271.34562	26.542833	13.344667
0.7378	276.09919	26.499031	13.363763
0.73950003	247.99877	26.337073	12.702993
0.7412	266.79044	26.398561	13.142784
0.74289997	270.99843	26.38018	13.089552
0.7446	262.2987	26.3057	12.961463
0.74630003	261.41453	26.223773	12.840642
0.748	272.14895	26.320347	13.1285
0.74969997	255.37337	26.161254	12.632586
0.7514	272.75171	26.220638	13.214951
0.75310003	261.14782	26.158334	13.154859
0.7548	273.07217	26.17851	13.219959
0.75649997	256.99877	26.070651	12.786479
0.7582	259.32255	26.01297	12.698439
0.75990003	258.61623	25.973736	12.633691
0.7616	270.79846	25.998878	13.071126
0.76329997	259.6128	25.943035	12.88478
0.765	260.71508	25.943061	12.770692
0.76670003	251.81006	25.855794	12.669461
0.7684	254.63258	25.813678	12.491294
0.77009997	264.79455	25.787836	12.537434
0.7718	284.66336	25.87184	13.177492
0.77350003	263.96143	25.774839	12.862358
0.7752	268.03596	25.758471	12.692511
0.77689997	253.10123	25.705831	12.482187
0.7786	261.79027	25.69149	12.783429
0.78030003	264.95593	25.652944	12.817699
0.782	264.48496	25.610499	12.612322
0.78369997	254.78822	25.564772	12.469757
0.7854	249.39439	25.499166	12.465332
0.78710003	270.69645	25.569062	12.93936
0.7888	260.26899	25.467451	12.551694
0.79049997	269.97902	25.502703	12.741324
0.7922	246.96752	25.335336	12.071208
0.79390003	258.32823	25.381098	12.45917
0.7956	279.94822	25.442381	12.984996
0.79729997	276.86364	25.374332	12.767031
0.799	263.53029	25.327735	12.571147
0.80070003	280.71661	25.316196	12.824706
0.8024	283.61902	25.312977	12.806295
0.80409997	265.0625	25.241697	12.384754
0.8058	255.2172	25.179058	12.255154
0.80750003	259.88173	25.183161	12.525861
0.8092	266.91105	25.137554	12.553427
0.81089997	268.86475	25.11911	12.391319
0.8126	266.63262	25.12387	12.655112
0.81430003	261.84952	25.039885	12.518125
0.816	263.97026	25.031142	12.378861
0.81769997	258.60474	25.106858	12.213814
0.8194	265.70996	25.319555	12.395652
0.82110003	257.12018	25.318209	12.191388
0.8228	256.4246	25.39722	12.412931
0.82449997	259.3208	25.498874	12.490219
0.8262	247.43811	25.432607	11.984265
0.82790003	242.83853	25.439734	12.060743
0.8296	252.73778	25.489828	12.285877
0.83129997	248.99754	25.524443	12.149736
0.833	247.94299	25.513715	12.328462
0.83470003	272.98431	25.568087	12.889418
0.8364	258.80468	25.519474	12.398027
0.83809997	247.40715	25.546633	12.268176
0.8398	273.83513	25.668247	12.769835
0.84150003	254.24838	25.540833	12.500056
0.8432	258.72191	25.709405	12.585852
0.84489997	256.83679	25.924876	12.598892
0.8466	244.88447	25.933383	12.268481
0.84830003	249.4336	26.039218	12.491099
0.85	279.31966	26.290574	13.55258
0.85169997	269.8705	26.331967	13.043944
0.8534	258.83447	26.464448	12.775283
0.85510003	271.5229	26.725593	13.39075
0.8568	270.42023	26.903948	13.55119
0.85849997	266.8083	27.04881	13.328815
0.8602	274.82327	27.243299	13.457411
0.86190003	281.52085	27.362194	13.785595
0.8636	282.27425	27.557631	14.011195
0.86529997	241.08952	27.521622	13.052764
0.867	250.49996	27.635611	13.271593
0.86870003	252.25142	27.707668	13.360503
0.8704	258.75463	27.874036	13.833716
0.87209997	234.82989	27.928119	13.334228
0.8738	234.39608	27.956455	13.043174
0.87550003	253.91729	28.103813	13.583845
0.8772	254.19152	28.258356	13.782472
0.87889997	267.50982	28.43814	14.31552
0.8806	259.74946	28.481452	14.090746
0.88230003	244.97684	28.508828	13.634273
0.884	255.03598	28.626059	13.921256
0.88569997	266.05744	28.798965	14.272179
0.8874	230.95956	28.684391	13.225638
0.88910003	269.98335	28.959635	14.254992
0.8908	263.16264	28.961409	14.238363
0.89249997	259.17079	29.087417	14.129746
0.8942	248.41544	29.159139	14.025974
0.89590003	257.03685	29.224119	14.039561
0.8976	251.01209	29.30921	14.099708
0.89929997	240.96123	29.314606	13.819368
0.901	253.6459	29.496005	14.053872
0.90270003	237.14897	29.507237	13.955656
0.9044	250.99329	29.658525	14.568393
0.90609997	259.71934	29.741496	14.540641
0.9078	254.24995	29.833621	14.497575
0.90950003	246.64868	29.866038	14.291537
0.9112	261.15499	30.094336	14.86384
0.91289997	256.55279	30.409375	14.620183
0.9146	259.31047	30.754118	14.783323
0.91630003	250.45658	30.978065	14.889085
0.918	262.37533	31.362402	15.736992
0.91969997	230.90237	31.362927	14.615627
0.9214	250.20672	31.622175	14.896937
0.92310003	249.6277	31.826593	15.347668
0.9248	252.32971	32.055237	15.436355
0.92649997	273.1093	32.384686	16.173116
0.9282	262.35164	32.546282	16.051626
0.92990003	269.70722	32.813506	16.407166
0.9316	240.78979	32.72633	15.517719
0.93329997	244.99009	32.935072	15.595089
0.935	246.9389	33.177015	15.692338
0.93670003	232.58246	33.299021	15.183047
0.9384	243.23908	33.524812	15.816565
0.94009997	283.74674	33.867896	17.095746
0.9418	268.06148	34.07756	17.061355
0.94350003	235.82709	33.992534	15.838056
0.9452	233.9293	34.200576	16.12378
0.94689997	254.33099	34.475307	16.544327
0.9486	234.07742	34.596421	15.65178
0.95030003	224.51729	34.718534	15.742071
0.952	250.49037	34.96382	17.139064
0.95369997	250.84257	35.227109	16.880457
0.9554	239.40478	35.323361	16.457331
0.95710003	245.40207	35.466973	16.790583
0.9588	268.32117	35.692966	17.376886
0.96049997	264.01364	35.896185	17.575415
0.9622	246.58896	36.038997	17.135416
0.96390003	226.34537	36.002535	16.800038
0.9656	231.20326	36.184959	16.924758
0.96729997	246.62459	36.483123	17.527815
0.969	254.16404	36.604511	17.52123
0.97070003	242.23259	36.722875	17.507892
0.9724	267.4615	36.980627	18.210481
0.97409997	268.96999	37.325037	18.663449
0.9758	277.15229	37.49072	18.818298
0.97750003	288.47916	37.632414	19.240316
0.9792	260.85662	37.725505	18.524326
0.98089997	212.76757	37.692066	17.008956
0.9826	217.77198	37.887101	17.221987
0.98430003	252.08189	38.166388	18.821937
0.986	249.24912	38.318835	18.976366
0.98769997	235.32086	38.399259	18.125217
0.9894	226.97993	38.450576	17.781753
0.99110003	229.66155	38.643183	18.279542
0.9928	224.93737	38.696783	17.566769
0.99449997	242.22448	39.082279	18.840477
0.9962	262.82495	39.225142	19.394223
0.99790003	242.81937	39.222318	18.791857
0.9996	263.51602	39.58197	19.858153
1.0013	257.28795	39.758024	19.370258
1.003	240.21872	39.794583	18.385623
1.0047	240.17605	39.999157	18.947469
1.0064	247.55568	40.223826	19.287559
1.0081	234.82519	40.335231	19.152044
1.0098	251.54311	40.724428	19.859511
1.0115	238.56013	40.714042	19.360908
1.0132	274.57921	41.142907	20.653377
1.0149	241.83704	41.181842	19.480782
1.0166	217.87836	41.144561	18.56479
1.0183	217.27259	41.323133	18.8519
1.02	251.52381	41.56498	19.647551
1.0217	288.26007	41.95783	20.888065
1.0234	266.36247	42.010523	20.254384
1.0251	255.60624	42.443338	20.556944
1.0268	246.83039	42.489139	19.675608
1.0285	244.78792	42.539826	19.832441
1.0302	242.80625	42.932343	20.829241
1.0319	224.13342	42.898864	19.183667
1.0336	232.30427	43.372853	19.908365
1.0353	219.66946	43.569413	20.310009
1.037	246.74496	43.87806	21.175014
1.0387	261.32016	44.431888	22.598369
1.0404	216.89932	44.152157	20.083717
1.0421	224.37952	44.564606	20.886083
1.0438	246.63359	44.871025	21.198876
1.0455	235.6422	45.22152	21.14308
1.0472	225.44902	45.479612	21.19009
1.0489	231.05174	45.58464	21.360241
1.0506	256.52448	46.056397	21.933887
1.0523	236.67789	46.111996	21.294082
1.054	241.90103	46.48236	21.584656
1.0557	221.05036	46.488371	20.302566
1.0574	265.90068	47.467907	23.84342
1.0591	252.28369	47.731363	23.506524
1.0608	227.25235	47.448453	21.617001
1.0625	271.20884	48.052513	23.309355
1.0642	231.80535	48.084712	21.429158
1.0659	260.21847	48.798486	23.804438
1.0676	266.05567	49.038394	24.094961
1.0693	243.02828	49.267734	23.12255
1.071	249.16701	49.741338	24.249212
1.0727	237.47169	49.811883	23.376437
1.0744	253.12877	50.202631	24.061466
1.0761	259.22412	50.790798	25.875564
1.0777999	247.75495	51.255544	25.265527
1.0795	272.33949	51.579629	25.275689
1.0812	238.0626	51.558154	23.763008
1.0829	242.7414	52.115784	23.906138
1.0846001	211.70903	52.130208	22.879599
1.0863	216.76358	52.567564	22.81002
1.088	187.62139	52.831542	22.401767
1.0897	234.80932	53.748165	25.696243
1.0913999	319.89308	54.96165	29.47745
1.0931	296.11715	54.65076	28.302025
1.0948	325.10924	55.552463	30.632121
1.0965	319.41699	55.810896	30.084496
1.0982001	349.00116	56.414261	30.580627
1.0999	340.92884	57.040748	31.7077
1.1016	294.10769	57.29947	30.824276
1.1033	295.65699	57.760641	29.567541
1.1049999	268.6665	57.751709	29.191458
1.1067	272.33973	58.525395	30.776141
1.1084	220.54507	58.338636	26.672679
1.1101	263.48736	59.56914	29.678976
1.1118001	233.61006	59.775412	28.491616
1.1135	206.75703	59.916999	26.253991
1.1152	210.30551	60.720959	26.455147
1.1169	229.94222	61.238228	27.684895
1.1185999	234.27546	61.757586	28.131764
1.1203	237.32839	62.55305	30.080546
1.122	229.45408	63.340224	30.30813
1.1237	276.73847	64.646647	33.369756
1.1254001	270.09315	64.610573	32.740536
1.1271	243.35024	65.045786	31.009627
1.1288	215.40417	65.332306	29.283174
1.1305	271.9777	66.855121	32.271285
1.1321999	256.62152	67.425458	32.065923
1.1339	221.84421	68.188373	31.224668
1.1356	212.37519	68.852207	30.333137
1.1373	237.77055	69.447892	32.563294
1.1390001	236.96492	70.436667	32.41335
1.1407	205.72712	70.825664	31.049613
1.1424	240.15003	72.486046	35.216464
1.1441	261.95257	73.581704	37.736772
1.1457999	294.46252	74.855236	39.533541
1.1475	307.8189	75.987804	39.243013
1.1492	249.15715	76.047241	37.141972
1.1509	226.54963	77.251595	36.097809
1.1526001	224.36115	78.233433	34.066818
1.1543	175.87264	79.431064	30.935167
1.156	229.287	81.091862	35.429037
1.1577	230.15983	81.644321	36.781432
1.1593999	274.18088	84.082801	41.974398
1.1611	218.83659	84.335216	37.84566
1.1628	269.05459	87.289963	43.69538
1.1645	294.52462	88.573763	44.52596
1.1662001	290.13867	91.200868	48.240442
1.1679	255.01904	92.036241	42.714204
1.1696	187.63388	92.059375	37.026047
1.1713	174.28288	94.770672	38.673553
1.1729999	196.63133	96.75581	42.477221
1.1747	212.2282	99.591505	44.16402
1.1764	223.84159	101.662	44.20136
1.1781	269.54845	105.47109	52.424597
1.1798001	187.25733	106.91906	45.577415
1.1815	191.67317	109.61688	46.327241
1.1832	139.94355	111.12265	40.164548
1.1849	203.04276	115.34023	50.790935
1.1865999	202.17365	118.56977	49.01402
1.1883	210.08323	120.90408	50.955329
1.19	229.62575	123.90804	54.985613
1.1917	363.36131	131.67975	74.01015
1.1934001	253.60774	131.80432	60.92018
1.1951	180.49094	134.65157	53.344425
1.1968	237.98851	141.01211	62.442711
1.1985	292.40066	147.06298	72.576813
1.2001999	244.38631	152.26926	73.172623
1.2019	135.21927	152.01196	53.027743
1.2036	277.33831	159.97091	75.213038
1.2053	350.40439	168.5169	99.572354
1.2070001	343.2159	171.44364	99.770394
1.2087	323.02946	177.55408	92.627106
1.2104	331.57079	185.96354	107.66548
1.2121	258.58455	190.54372	102.53379
1.2137999	444.63341	208.97919	148.88278
1.2155	291.09879	208.64932	108.12783
1.2172	181.08292	217.86875	97.69033
1.2189	245.83458	234.30042	121.83935
1.2206001	440.24119	253.13777	139.54925
1.2223	202.69425	267.29624	110.11093
1.224	141.74777	288.30304	103.29757
1.2257	81.12587	303.33989	81.006166
1.2273999	303.39574	331.47722	165.19733
1.2291	370.35788	356.86375	190.61387
1.2308	554.14272	394.87759	236.73761
1.2325	549.77949	423.46484	259.23973
1.2342001	487.21167	464.45765	277.86432
1.2359	546.69398	554.1474	342.03651
1.2376	381.86912	656.15201	379.95768
