# HDF: fcm_201403_060  
# /archive/messung/kmc/daten/2014/1Q/pilatus_201403_0947.tif
# Energy (eV)=8800 Distance (mm)=4.5326  Normalization factor =0.00050440947  Center=(497.5,538.2)  Binsize (nm-1)=0.0017
# Normalized by solid angle (1/distance^2), time (PilatusAcqTime_GRAL) and intensity (K4norm_mean)
# Detector quantum efficiency = 95.72% Monitor sensitivity (ph/s/A) = 4.538e+16 Sample thickness (mm) =1 Direct beam(photons * sr) = 0.527
# q(nm-1)	I_norm	err_pois	err_stdv
0	0	935.25358	0
0.0017	0	494.63898	0
0.0034	0	362.62996	3.3465506
0.0051	34.607386	297.83869	54.61772
0.0068	189.11151	272.33597	109.73329
0.0085	131.68161	257.37332	89.819154
0.0102	241.46468	251.24416	113.51027
0.0119	150.46709	236.93784	87.350738
0.0136	204.05382	227.15781	95.373078
0.0153	252.3396	221.36128	116.76558
0.017	128.08404	208.08416	87.405006
0.0187	129.6192	194.72721	80.867111
0.0204	46.88462	171.91099	36.895623
0.0221	113.35676	170.20838	151.23965
0.0238	4011.5167	291.58854	2123.7842
0.0255	34203.231	777.89136	5646.666
0.0272	76896.122	1143.8891	6283.3304
0.0289	122573.96	1543.5731	3876.9955
0.0306	128246.94	1482.3632	2429.8138
0.0323	129184.22	1404.1396	2562.9603
0.034	122974.87	1245.7723	2230.7291
0.0357	115555.3	1125.2142	1967.3579
0.0374	108468.49	1045.6901	1865.0931
0.0391	105776.95	1005.2714	1692.3511
0.0408	101408.96	962.10519	1595.2316
0.0425	93961.565	900.72212	1452.9721
0.0442	88019.991	855.69115	1387.51
0.0459	83089.111	816.0554	1463.7733
0.0476	77728.291	771.59937	1448.4625
0.0493	71576.081	725.03553	1354.7376
0.051	67055.719	687.87455	1234.5025
0.0527	63276.615	658.93375	1171.2166
0.0544	57915.493	616.02932	1090.2736
0.0561	52993.344	580.1156	1046.4585
0.0578	49130.677	553.38842	1009.8884
0.0595	44460.638	516.72068	934.20851
0.0612	40414.915	484.34757	862.17605
0.0629	37361.917	454.57614	799.50372
0.0646	34084.814	430.69958	745.69718
0.0663	30097.171	399.23576	693.15196
0.068	27919.806	379.38105	628.41933
0.0697	24837.96	351.07726	589.85883
0.0714	22465.351	328.746	567.53002
0.0731	20556.525	313.07812	522.22975
0.0748	18343.055	289.82737	473.10275
0.0765	15721.903	265.2925	430.9321
0.0782	13217.529	242.68957	411.07963
0.0799	11168.907	220.05188	361.55618
0.0816	9516.4435	200.98333	315.23979
0.0833	8339.6572	186.10749	284.02519
0.085	6760.4507	165.51184	264.78057
0.0867	5708.2235	152.33674	228.79615
0.0884	4956.3716	141.72412	195.34487
0.0901	4072.8909	128.0886	169.11992
0.0918	3396.0212	116.93037	154.45551
0.0935	2996.6871	110.5404	133.3145
0.0952	2608.8305	103.94512	121.01999
0.0969	2247.3523	97.017079	105.26624
0.0986	1899.5328	91.191082	92.729523
0.1003	1690.7562	88.104179	88.073515
0.102	1672.0301	87.152512	86.246052
0.1037	1622.8969	85.82675	87.413211
0.1054	1613.6922	84.362977	85.303595
0.1071	1620.9434	84.192956	83.002141
0.1088	1501.6762	82.050822	80.881683
0.1105	1511.3275	81.033446	79.932771
0.1122	1608.148	81.454565	81.237181
0.1139	1746.4868	84.128001	86.066593
0.1156	1729.3881	81.439513	83.703308
0.1173	1909.9535	84.530176	91.375829
0.119	1918.2669	83.610104	87.585477
0.1207	1935.5502	82.280627	82.880444
0.1224	2067.6926	84.068497	85.250907
0.1241	2148.061	84.151753	89.510199
0.1258	2156.8108	83.530718	86.967315
0.1275	2196.777	83.355055	87.723179
0.1292	2169.9422	83.104356	86.27967
0.1309	2093.0551	81.711955	85.563895
0.1326	2151.3299	81.773409	88.954599
0.1343	2067.4712	80.088367	85.537219
0.136	1912.4885	78.697267	81.227484
0.1377	1897.0381	78.652836	81.009296
0.1394	2090.6891	81.416212	83.627061
0.1411	1946.4527	79.59516	82.134861
0.1428	1673.4344	76.780314	79.692389
0.1445	1487.6436	74.419548	73.888749
0.1462	1485.0134	74.280392	72.705851
0.1479	1452.8957	74.315768	72.963337
0.1496	1383.425	73.25168	69.752122
0.1513	1393.2179	72.956698	67.514641
0.153	1245.5711	71.037478	62.078596
0.1547	994.043	67.880789	55.837674
0.1564	1018.4674	68.997743	61.19629
0.1581	1046.4158	68.685294	60.722986
0.1598	982.45588	67.850273	57.719823
0.1615	891.75955	67.21929	55.869077
0.1632	878.42386	66.326758	52.603132
0.1649	934.27859	66.703704	56.028045
0.1666	888.7766	65.078861	55.292606
0.1683	839.34662	63.719384	52.520138
0.17	796.61146	62.16522	48.402492
0.1717	803.82214	61.475109	46.831455
0.1734	823.94134	60.811379	45.138212
0.1751	877.16998	61.602131	50.101769
0.1768	801.99326	60.659124	48.890999
0.1785	748.12782	59.764554	47.243671
0.1802	806.00031	59.394432	46.622292
0.1819	768.49996	58.927358	46.75019
0.1836	822.71731	59.20816	48.347559
0.1853	865.07794	59.047745	48.462776
0.187	850.79649	58.703815	48.743677
0.1887	917.98818	58.960054	49.549755
0.1904	815.51833	57.417795	46.082866
0.1921	902.23212	57.937058	47.849514
0.1938	934.72821	58.409273	50.005515
0.1955	877.66617	58.04798	47.932796
0.1972	912.00555	58.942583	47.927788
0.1989	812.05691	58.087747	46.173711
0.2006	844.20305	58.357767	47.544074
0.2023	864.70612	58.736448	48.09042
0.204	828.48085	58.33256	46.08051
0.2057	793.75808	57.769191	45.551406
0.2074	833.96907	58.255844	46.371767
0.2091	773.33459	57.553709	44.292397
0.2108	766.54317	57.957143	46.276834
0.2125	741.20452	57.306603	45.335887
0.2142	798.74904	57.476287	44.467211
0.2159	746.77628	57.135663	43.744973
0.2176	684.81615	56.661562	42.431611
0.2193	711.94586	56.962164	43.646843
0.221	749.43634	57.149633	44.570456
0.2227	685.54489	55.859945	41.011319
0.2244	684.24434	55.46006	41.609541
0.2261	674.97483	54.528925	40.882521
0.2278	727.24591	54.5709	42.614626
0.2295	695.37232	53.525792	39.718028
0.2312	705.89558	53.515368	39.793935
0.2329	663.3574	52.636518	38.803473
0.2346	639.97478	52.079293	37.729953
0.2363	636.24879	51.530259	36.589153
0.238	603.90897	51.211385	35.682932
0.2397	638.09663	51.435315	37.415865
0.2414	636.36707	50.927972	37.556687
0.2431	651.43906	50.84373	37.518763
0.2448	619.82532	50.248695	35.788976
0.2465	582.0728	49.673568	34.509259
0.2482	612.18717	49.8534	35.875534
0.2499	602.92866	49.51371	35.784637
0.2516	615.25361	49.300673	35.017359
0.2533	627.90081	49.069099	34.551323
0.255	624.8837	48.808607	34.423669
0.2567	634.7197	49.052393	36.087208
0.2584	649.74295	48.682781	35.400683
0.2601	691.36202	48.705978	36.058468
0.2618	672.19188	48.426295	35.900637
0.2635	682.62905	48.383094	35.494699
0.2652	664.44123	47.818775	35.034855
0.2669	697.79752	48.200559	36.744805
0.2686	622.82181	47.336181	34.821494
0.2703	623.98363	47.115596	33.88404
0.272	628.6621	46.95055	33.46619
0.2737	603.2945	46.617418	32.712929
0.2754	584.06002	46.181222	31.484545
0.2771	583.40962	45.973211	32.176055
0.2788	623.95627	46.238134	33.772826
0.2805	653.31668	46.646882	34.958763
0.2822	610.45159	45.800513	32.704425
0.2839	586.96971	45.458419	31.730665
0.2856	622.77182	45.666925	32.807146
0.2873	661.80203	45.509678	32.83223
0.289	615.37343	45.083394	32.193315
0.2907	602.8333	44.737511	30.943156
0.2924	598.49118	44.812894	31.460029
0.2941	587.48338	44.589854	31.282689
0.2958	589.10097	44.349838	31.385572
0.2975	611.35498	44.40692	31.649377
0.2992	602.99205	44.103706	31.312545
0.3009	612.26711	44.05144	31.382637
0.3026	634.35912	44.194115	31.824855
0.3043	635.97807	43.921674	31.338446
0.306	609.25769	43.65641	31.170999
0.3077	573.88228	43.220602	30.020151
0.3094	602.3829	43.376624	31.197306
0.3111	610.29898	43.20506	30.882315
0.3128	566.99668	42.596233	28.563703
0.3145	594.97725	42.847316	29.548429
0.3162	623.55645	43.070748	31.576087
0.3179	630.61127	42.741254	30.921857
0.3196	618.01258	42.561089	30.307804
0.3213	577.92933	42.254161	29.744917
0.323	585.33752	42.346221	30.121484
0.3247	576.80319	42.002668	29.629359
0.3264	593.48338	41.971712	30.041443
0.3281	561.78214	41.594028	28.692821
0.3298	566.65358	41.513866	29.286497
0.3315	597.25309	41.706785	30.458575
0.3332	584.67856	41.379015	29.687318
0.3349	596.72263	41.418047	29.758995
0.3366	559.29702	41.142688	28.911148
0.3383	562.92115	40.981951	28.931253
0.34	565.81394	40.789364	28.457772
0.3417	555.8128	40.57098	27.974093
0.3434	598.44143	40.65208	28.363668
0.3451	585.76901	40.510656	28.311184
0.3468	582.45164	40.54803	28.580721
0.3485	575.31334	40.231379	27.718246
0.3502	580.38313	40.194086	27.826829
0.3519	522.4532	39.660303	26.602327
0.3536	562.35672	39.926659	27.726998
0.3553	586.52162	39.976507	28.406175
0.357	585.91252	39.751037	27.777062
0.3587	586.72486	39.606729	27.330185
0.3604	574.58236	39.440272	26.823154
0.3621	538.00968	39.36429	27.214215
0.3638	565.7753	39.316953	27.458941
0.3655	615.04197	39.406424	28.358707
0.3672	595.25996	39.218498	28.003567
0.3689	543.65748	38.767819	26.25734
0.3706	553.61684	38.78519	26.789691
0.3723	589.02871	38.983659	27.78017
0.374	571.01743	38.656613	26.960049
0.3757	607.02805	38.84249	27.223708
0.3774	585.68936	38.43392	25.682527
0.3791	584.09547	38.284553	26.061393
0.3808	627.60811	38.729973	28.458651
0.3825	592.76598	38.35909	27.331417
0.3842	578.2108	38.231097	26.731877
0.3859	580.5768	38.011926	26.29263
0.3876	591.06071	37.973282	26.220071
0.3893	589.48247	37.956794	26.543445
0.391	573.08016	37.809949	26.234984
0.3927	550.13422	37.598219	26.30335
0.3944	545.13173	37.404104	25.784581
0.3961	559.71947	37.533755	26.540151
0.3978	599.82854	37.700449	26.89838
0.3995	567.51378	37.28974	25.425273
0.4012	536.67787	36.971915	24.75831
0.4029	548.57618	37.12055	26.112065
0.4046	549.77239	37.100174	26.04235
0.4063	559.96248	36.958643	25.828805
0.408	545.68599	36.762755	25.388579
0.4097	590.67177	36.962875	26.113097
0.4114	570.45785	36.721958	25.479494
0.4131	551.89928	36.551867	24.795149
0.4148	526.81706	36.222831	24.251026
0.4165	565.1525	36.447208	24.99184
0.4182	570.91918	36.461809	25.171454
0.4199	559.47344	36.333871	25.199646
0.4216	550.10225	36.170342	25.108
0.4233	555.97528	36.049446	24.797865
0.425	555.91957	36.051422	24.746268
0.4267	515.69114	35.703929	23.887951
0.4284	534.94312	35.701429	24.111334
0.4301	551.49763	35.702016	24.233886
0.4318	557.81786	35.759708	24.618655
0.4335	575.5001	35.840704	25.111216
0.4352	578.85895	35.666747	25.06628
0.4369	582.27286	35.626271	24.937957
0.4386	576.95504	35.586091	25.123936
0.4403	605.77294	35.622626	25.375368
0.442	575.1804	35.273372	24.317666
0.4437	544.16867	35.101568	23.730889
0.4454	551.88268	35.189739	24.358148
0.4471	563.59139	35.115708	24.464851
0.4488	547.95126	34.911101	23.97997
0.4505	547.22311	34.875278	23.898263
0.4522	575.90199	34.986052	24.682053
0.4539	561.27242	34.818709	23.774954
0.4556	518.76497	34.413097	22.476498
0.4573	559.48449	34.764832	24.139651
0.459	579.21085	34.706295	24.0741
0.4607	544.34066	34.393226	23.326545
0.4624	542.066	34.398521	23.779729
0.4641	551.0603	34.424865	23.851294
0.4658	557.2519	34.386679	23.314021
0.4675	548.86469	34.2923	23.143218
0.4692	526.21399	33.939128	22.662085
0.4709	568.86076	34.247696	23.743394
0.4726	542.22411	34.023451	23.336476
0.4743	531.20289	33.942119	23.144865
0.476	507.69075	33.716453	22.60026
0.4777	559.52101	33.867094	23.044847
0.4794	549.2661	33.790204	23.290943
0.4811	532.64997	33.690427	22.997008
0.4828	504.02149	33.320763	21.670221
0.4845	509.42988	33.346198	21.670321
0.4862	543.20141	33.518759	22.370866
0.4879	543.2895	33.420577	22.532711
0.4896	527.94325	33.315438	22.312011
0.4913	514.1236	33.109668	21.824756
0.493	535.86955	33.251129	22.795217
0.4947	573.7361	33.49383	23.30252
0.4964	550.00713	33.624316	22.918755
0.4981	543.26416	33.726534	23.073671
0.4998	508.13512	33.647429	22.596179
0.5015	520.95331	33.822589	22.708728
0.5032	524.3681	33.715124	22.233581
0.5049	572.13423	34.117959	23.282827
0.5066	562.14993	34.175016	24.218245
0.5083	556.94496	34.08663	23.405632
0.51	544.3549	34.07851	23.048034
0.5117	534.15423	33.915849	22.609842
0.5134	533.29681	34.022292	23.018444
0.5151	562.3146	34.315616	23.747377
0.5168	549.82421	34.139961	23.173845
0.5185	571.22948	34.155341	23.003518
0.5202	541.09484	34.058314	22.607931
0.5219	539.93196	34.164646	23.092444
0.5236	555.63366	34.008762	23.215228
0.5253	547.79664	33.710316	23.093957
0.527	543.04277	33.423362	22.327135
0.5287	524.99888	33.188733	21.77743
0.5304	599.70901	33.528213	23.34991
0.5321	591.5488	33.262817	22.971078
0.5338	557.58696	32.995471	22.409049
0.5355	516.5234	32.742645	21.908155
0.5372	539.32151	32.815879	22.293954
0.53889997	540.2594	32.605586	21.746731
0.5406	519.08231	32.444609	21.324525
0.54230003	538.3923	32.58029	21.921565
0.544	555.80914	32.599197	22.461382
0.54569997	533.14934	32.302675	21.679964
0.5474	551.09911	32.262609	21.747907
0.54910003	533.96641	32.214412	21.78409
0.5508	554.51787	32.280316	22.165072
0.55249997	548.11947	32.162795	21.768001
0.5542	545.10355	32.395359	22.000846
0.55590003	558.44397	32.539826	22.38737
0.5576	570.8491	32.729462	22.87541
0.55929997	554.85807	32.684004	22.653542
0.561	526.76749	32.673015	22.086288
0.56270003	516.37793	32.683594	21.755874
0.5644	531.70362	32.724768	22.222069
0.56609997	534.45757	32.663776	21.845869
0.5678	563.57219	33.059008	23.487243
0.56950003	561.60512	32.968071	23.112671
0.5712	588.33773	33.110772	23.119643
0.57289997	552.23452	32.852444	22.536815
0.5746	539.34101	32.929766	22.619382
0.57630003	530.75262	32.779506	22.024348
0.578	530.03132	32.823272	22.226785
0.57969997	550.92541	32.911051	22.445498
0.5814	552.62022	32.960951	22.820304
0.58310003	522.35122	32.550431	22.324749
0.5848	547.84987	32.327808	21.929862
0.58649997	536.59143	32.044299	21.529588
0.5882	564.00622	32.110775	22.24585
0.58990003	567.96588	32.041489	22.186719
0.5916	535.52681	31.664229	21.18362
0.59329997	549.88217	31.713974	21.618158
0.595	539.28216	31.557509	21.20427
0.59670003	514.35007	31.295451	20.473749
0.5984	532.9988	31.390428	20.907035
0.60009997	526.36932	31.254857	20.932773
0.6018	514.14215	31.099179	20.957549
0.60350003	527.70071	31.148322	21.112758
0.6052	520.5087	31.048973	21.04842
0.60689997	545.42195	31.063316	21.204679
0.6086	545.3797	30.913445	20.934095
0.61030003	510.37214	30.792958	20.551396
0.612	515.19242	30.693114	20.225938
0.61369997	561.74533	30.846691	20.681095
0.6154	528.71813	30.635432	20.371955
0.61710003	548.21459	30.666067	20.905347
0.6188	551.47678	30.642203	20.976266
0.62049997	519.2917	30.434655	20.213216
0.6222	496.84502	30.249879	19.719263
0.62390003	531.07645	30.401674	20.470062
0.6256	555.35715	30.409901	20.677515
0.62729997	558.69065	30.375162	20.503536
0.629	504.13812	30.008622	19.608027
0.63070003	519.36703	30.007542	19.791913
0.6324	550.72039	30.143925	20.57267
0.63409997	546.79783	30.150912	20.509696
0.6358	533.44624	29.92495	20.100845
0.63750003	557.67529	30.098265	20.611883
0.6392	516.17019	29.783089	19.377054
0.64089997	519.89471	29.776852	19.700805
0.6426	554.93559	29.860464	20.275553
0.64430003	546.10832	29.77101	20.21908
0.646	516.24618	29.568301	19.562342
0.64769997	531.71905	29.709254	20.173711
0.6494	538.7751	29.632512	20.345709
0.65110003	558.88928	29.728279	20.845575
0.6528	556.4356	29.715512	20.965105
0.65449997	537.03291	29.487322	20.249802
0.6562	508.71568	29.246078	19.288684
0.65790003	516.00305	29.29872	19.475943
0.6596	546.3007	29.45192	20.123577
0.66129997	539.14325	29.280162	19.928751
0.663	544.87288	29.272882	20.191433
0.66470003	528.78206	29.115446	19.531255
0.6664	539.57202	29.202646	20.066336
0.66809997	554.90622	29.213032	20.015321
0.6698	517.83872	28.889331	18.902388
0.67150003	543.07515	29.000118	19.297657
0.6732	533.20458	28.905208	19.263523
0.67489997	543.76926	28.943335	19.729748
0.6766	554.02446	28.904287	19.865598
0.67830003	535.24208	28.791336	19.367093
0.68	548.35503	28.879608	19.709519
0.68169997	531.07734	28.822644	19.813717
0.6834	523.01166	28.596452	19.033182
0.68510003	541.61218	28.610038	19.25563
0.6868	563.50844	28.782874	19.898197
0.68849997	520.39869	28.442944	18.924459
0.6902	514.91538	28.41679	18.884262
0.69190003	536.51114	28.488979	19.460657
0.6936	558.27724	28.537237	19.613141
0.69529997	531.77577	28.317607	19.064543
0.697	547.68875	28.394593	19.355967
0.69870003	530.62369	28.308148	19.11375
0.7004	528.18986	28.355347	19.558782
0.70209997	521.30391	28.211059	19.165871
0.7038	516.3878	28.097362	18.608318
0.70550003	520.44731	28.137489	19.051701
0.7072	537.11125	28.283231	19.709111
0.70889997	523.50613	28.05311	19.156397
0.7106	542.74794	28.137169	19.644358
0.71230003	529.28173	28.018181	19.392303
0.714	545.72262	28.017673	19.321475
0.71569997	530.74204	27.972502	18.984687
0.7174	522.04228	27.764278	18.541575
0.71910003	533.48978	27.810011	18.870455
0.7208	553.00019	27.930826	19.564669
0.72249997	541.58476	27.803031	19.134745
0.7242	536.28869	27.780329	18.907585
0.72590003	541.94198	27.680752	18.862257
0.7276	512.57762	27.551974	18.232121
0.72929997	501.22388	27.45603	17.808874
0.731	502.26729	27.41002	18.009803
0.73270003	538.63135	27.522942	18.542473
0.7344	544.68925	27.508899	18.647398
0.73609997	522.49486	27.412197	18.208449
0.7378	510.14485	27.26778	18.015436
0.73950003	533.03094	27.425873	18.631508
0.7412	514.12366	27.193636	17.75496
0.74289997	552.91912	27.417395	18.637507
0.7446	541.53832	27.285961	18.434582
0.74630003	514.16064	27.080251	17.817676
0.748	530.08208	27.241518	18.395233
0.74969997	547.43693	27.284586	18.79105
0.7514	532.98716	27.131482	18.420749
0.75310003	515.39011	26.986686	17.871471
0.7548	536.66901	27.074933	18.171725
0.75649997	546.17899	27.074712	18.382013
0.7582	551.98188	27.048329	18.472483
0.75990003	535.07151	26.937769	18.044145
0.7616	532.57818	26.847888	17.668102
0.76329997	515.42137	26.799681	17.783176
0.765	515.70609	26.87086	18.046071
0.76670003	524.11056	26.747872	17.80118
0.7684	536.86818	26.814168	18.213294
0.77009997	536.22145	26.814947	18.338516
0.7718	526.30043	26.71632	18.004507
0.77350003	517.48185	26.598086	17.72459
0.7752	528.20481	26.722394	18.254516
0.77689997	506.91073	26.545919	17.528015
0.7786	482.36788	26.395119	17.116293
0.78030003	537.65529	26.614827	18.047142
0.782	551.32623	26.586068	18.041741
0.78369997	494.18767	26.357856	17.257309
0.7854	487.37076	26.323951	17.247534
0.78710003	497.98178	26.298139	17.268322
0.7888	500.03181	26.346501	17.636066
0.79049997	526.2583	26.387243	17.876477
0.7922	535.24084	26.287679	17.455325
0.79390003	516.09516	26.220001	17.148683
0.7956	491.91783	26.138826	17.159647
0.79729997	509.81841	26.152491	17.331512
0.799	530.5102	26.217898	17.687064
0.80070003	526.77924	26.206486	17.961487
0.8024	536.37241	26.208131	17.774543
0.80409997	524.60999	26.076862	17.41905
0.8058	526.87466	26.075385	17.283957
0.80750003	509.59147	25.974416	17.003556
0.8092	511.21574	25.948143	17.161218
0.81089997	506.75079	25.929882	16.981451
0.8126	528.82312	26.056365	17.57665
0.81430003	503.83933	25.809955	17.187507
0.816	508.29908	25.790794	16.865693
0.81769997	507.74033	25.976375	17.332572
0.8194	529.32031	26.246027	17.510229
0.82110003	504.28063	26.166527	17.394244
0.8228	529.97425	26.30592	17.50632
0.82449997	539.2096	26.477146	17.939323
0.8262	527.37309	26.463704	17.927267
0.82790003	519.73429	26.392228	17.614515
0.8296	525.76029	26.417527	17.555902
0.83129997	506.72834	26.364643	17.113427
0.833	527.36033	26.527611	17.921102
0.83470003	524.68272	26.451836	17.949981
0.8364	507.89879	26.384434	17.65341
0.83809997	513.5805	26.508896	18.049579
0.8398	524.55705	26.542897	17.765667
0.84150003	531.98368	26.570278	18.156275
0.8432	537.13601	26.6594	18.025255
0.84489997	518.38618	26.823102	17.727018
0.8466	488.47834	26.737322	17.197798
0.84830003	526.30687	27.122063	18.714365
0.85	541.4835	27.209518	18.6341
0.85169997	531.91709	27.34095	18.738337
0.8534	504.87826	27.338095	18.183075
0.85510003	520.34209	27.578034	18.203844
0.8568	518.70364	27.763901	18.516241
0.85849997	533.52795	28.143622	19.165182
0.8602	521.11915	28.227493	19.058016
0.86190003	504.15903	28.160345	18.525691
0.8636	527.51785	28.39578	18.806728
0.86529997	534.38242	28.565751	18.89159
0.867	494.9045	28.543533	18.580244
0.86870003	483.18731	28.589057	18.447946
0.8704	527.80216	28.810985	19.162564
0.87209997	534.28451	29.036867	19.577656
0.8738	503.53481	28.985017	19.254262
0.87550003	517.32593	29.14313	19.553162
0.8772	519.94824	29.241198	19.480666
0.87889997	513.61879	29.336241	19.420135
0.8806	498.87412	29.339031	18.980666
0.88230003	515.22421	29.566281	19.63044
0.884	502.53187	29.56145	19.413806
0.88569997	535.12492	29.878376	20.071728
0.8874	521.56086	29.827075	19.928531
0.88910003	532.89664	29.944808	20.062758
0.8908	521.1754	30.029166	20.233284
0.89249997	502.88017	30.130334	20.208796
0.8942	491.55003	30.144226	20.114314
0.89590003	511.46076	30.336728	20.675649
0.8976	518.58453	30.398393	20.595361
0.89929997	519.11055	30.407811	20.177541
0.901	522.0626	30.625268	20.26901
0.90270003	494.58078	30.437384	19.86827
0.9044	531.99739	30.689516	20.212084
0.90609997	513.29383	30.774628	20.40344
0.9078	507.15173	30.846346	20.449167
0.90950003	511.11187	30.921831	20.489993
0.9112	545.2242	31.204193	21.427825
0.91289997	557.13007	31.749184	22.00091
0.9146	533.2821	31.914016	21.613795
0.91630003	534.76427	32.173891	21.731417
0.918	532.9686	32.475805	22.10785
0.91969997	487.83412	32.483467	21.280024
0.9214	483.2123	32.614297	21.005346
0.92310003	522.69964	33.069115	22.246914
0.9248	503.41357	33.094447	21.727586
0.92649997	532.36891	33.41852	22.130097
0.9282	526.50433	33.778676	22.741157
0.92990003	492.99164	33.68546	21.801583
0.9316	507.01431	34.022281	22.664967
0.93329997	507.05005	34.101737	22.622536
0.935	533.41734	34.496859	23.617302
0.93670003	540.71807	34.831002	23.878169
0.9384	482.89367	34.539244	22.366296
0.94009997	494.49887	34.892981	22.91644
0.9418	514.93889	35.134637	23.136371
0.94350003	549.33754	35.45748	23.90042
0.9452	531.68058	35.569115	24.139107
0.94689997	533.24949	35.818175	24.342795
0.9486	512.53035	36.000935	23.960059
0.95030003	467.13049	35.831465	23.265761
0.952	533.14278	36.415905	25.165339
0.95369997	527.23673	36.498297	23.940929
0.9554	485.94959	36.412135	23.262539
0.95710003	497.76979	36.722778	24.023883
0.9588	500.64663	36.830409	24.061668
0.96049997	500.54997	37.109133	24.344884
0.9622	474.13893	37.043406	23.804959
0.96390003	537.2589	37.430285	25.350139
0.9656	564.08781	37.89106	26.598227
0.96729997	500.56078	37.672812	24.999825
0.969	481.18172	37.844989	24.983422
0.97070003	491.29633	37.948721	25.057663
0.9724	524.05844	38.394684	26.024224
0.97409997	479.87414	38.382853	25.422026
0.9758	513.74617	38.638297	25.484769
0.97750003	501.82529	38.777709	25.364166
0.9792	470.89491	38.696347	24.579494
0.98089997	491.70386	39.253136	26.054925
0.9826	487.93799	39.217032	25.157296
0.98430003	525.58487	39.363471	25.624313
0.986	536.41743	39.785431	27.169218
0.98769997	565.7148	40.319576	28.668534
0.9894	522.18679	40.02784	27.00222
0.99110003	489.29721	39.962992	26.640305
0.9928	515.98255	40.397352	27.771084
0.99449997	501.60314	40.359225	26.696569
0.9962	506.31724	40.476476	26.55696
0.99790003	508.70983	40.625175	26.388467
0.9996	449.21404	40.352685	24.984148
1.0013	483.56155	40.980116	26.1069
1.003	496.64325	41.164379	26.706854
1.0047	518.82452	41.49884	27.746653
1.0064	514.31101	41.551727	27.604348
1.0081	564.22347	42.030024	28.107524
1.0098	518.21153	42.234723	28.420265
1.0115	526.08253	42.22213	28.240608
1.0132	531.50735	42.556654	28.784402
1.0149	566.49718	43.094352	29.436501
1.0166	527.15649	42.656517	27.711143
1.0183	497.55709	42.839657	27.845485
1.02	488.8729	42.949896	27.919891
1.0217	515.19372	43.353219	28.75771
1.0234	549.19828	43.721894	29.275206
1.0251	505.57727	43.68326	28.5559
1.0268	511.64705	44.087735	28.809583
1.0285	494.65006	43.944786	28.413546
1.0302	501.83953	44.411794	29.646277
1.0319	529.66359	44.83693	30.132838
1.0336	539.71601	45.192791	30.151338
1.0353	489.62657	44.925781	29.188719
1.037	494.0651	45.540158	30.753202
1.0387	464.18207	45.611834	30.018764
1.0404	476.16874	45.755805	30.174833
1.0421	511.82832	46.350958	31.010439
1.0438	519.19392	46.354522	30.260964
1.0455	528.35034	47.170097	32.045362
1.0472	491.77396	47.0045	31.159932
1.0489	517.65934	47.183608	31.04754
1.0506	497.08702	47.666491	31.216069
1.0523	474.66737	47.57729	30.431138
1.054	527.97232	48.416432	33.267182
1.0557	543.99372	48.873698	33.89065
1.0574	473.85075	48.701422	31.395616
1.0591	479.41751	49.035757	30.93742
1.0608	480.84509	49.038752	30.852374
1.0625	460.00962	49.117078	30.100425
1.0642	512.93844	50.14997	33.077353
1.0659	464.42464	50.137725	32.377501
1.0676	481.27023	50.538282	32.502296
1.0693	501.813	51.009149	33.050828
1.071	520.2778	51.681945	34.727277
1.0727	561.5562	52.015845	35.786166
1.0744	534.57639	52.311023	35.348054
1.0761	486.50509	52.130212	34.109112
1.0777999	492.52769	52.750538	34.557667
1.0795	465.03013	52.900791	33.539018
1.0812	498.16223	53.466162	35.420461
1.0829	558.54619	54.745713	38.372964
1.0846001	509.95744	54.143548	35.951179
1.0863	578.11349	55.413266	38.937448
1.088	528.37551	55.142644	36.922916
1.0897	451.88592	55.132811	34.305886
1.0913999	436.48005	55.523892	33.678713
1.0931	476.93461	55.849827	34.728802
1.0948	481.75436	56.65586	36.476864
1.0965	508.3903	57.095449	37.018857
1.0982001	498.34485	57.826398	37.980704
1.0999	465.45198	57.793278	35.97934
1.1016	469.89631	58.511406	38.288707
1.1033	488.53831	59.284009	38.568409
1.1049999	432.80236	58.762792	36.352205
1.1067	469.34518	59.918999	38.23048
1.1084	466.92187	60.395242	38.973633
1.1101	441.57238	60.722355	38.246492
1.1118001	514.93617	62.165826	41.009259
1.1135	472.10787	62.02175	39.739179
1.1152	506.65189	63.213223	41.766238
1.1169	514.90285	63.516521	42.265092
1.1185999	462.36563	63.750994	40.7936
1.1203	462.64229	64.436068	40.855165
1.122	416.54144	64.811035	39.828573
1.1237	508.01004	66.632885	45.310053
1.1254001	521.01144	66.89108	46.364858
1.1271	461.3559	66.600559	40.654089
1.1288	500.87339	67.807009	44.030963
1.1305	547.18878	69.759552	47.709445
1.1321999	503.0589	69.082542	42.980391
1.1339	555.23059	71.204182	48.468839
1.1356	521.87791	72.027896	49.10836
1.1373	487.78307	71.76349	48.245182
1.1390001	446.40128	72.328713	45.978997
1.1407	454.15118	72.77955	43.698644
1.1424	521.86792	75.474958	51.965184
1.1441	509.16796	75.65263	49.252771
1.1457999	482.08596	76.594171	48.282995
1.1475	481.11948	77.786552	48.057902
1.1492	427.4683	77.747365	48.52495
1.1509	500.4887	80.080679	52.172331
1.1526001	438.54195	80.022002	48.854755
1.1543	579.58692	84.385458	56.474617
1.156	427.31105	82.869063	49.99732
1.1577	419.25529	84.14874	54.825266
1.1593999	436.67568	86.219065	55.225638
1.1611	467.7958	87.01419	54.15716
1.1628	427.29692	88.668575	54.302594
1.1645	498.54207	91.263814	58.411359
1.1662001	455.96735	92.436941	56.872782
1.1679	530.24609	96.421797	66.132565
1.1696	521.82822	96.492232	66.991227
1.1713	570.94505	100.84844	72.796396
1.1729999	411.05677	98.575194	58.553359
1.1747	557.47098	104.06221	68.977063
1.1764	588.72207	107.2524	76.462356
1.1781	437.81587	107.33247	66.859973
1.1798001	418.33575	110.12729	66.140239
1.1815	447.13415	112.8326	70.006041
1.1832	551.60026	118.38326	82.735844
1.1849	512.72509	119.86799	78.567039
1.1865999	533.16547	124.49812	83.915389
1.1883	478.32423	125.15534	79.834648
1.19	460.85927	127.55416	77.12746
1.1917	603.31311	135.26454	95.421984
1.1934001	577.37116	138.91013	97.146332
1.1951	478.9579	141.6278	96.389072
1.1968	520.09807	144.84441	92.213133
1.1985	597.5787	152.52343	100.44539
1.2001999	552.74341	158.4933	109.6378
1.2019	479.03834	160.25323	103.61006
1.2036	260.84542	159.0623	77.46256
1.2053	322.85276	167.53239	94.422696
1.2070001	354.83329	170.10307	90.444561
1.2087	420.30276	181.05518	113.50466
1.2104	743.38518	197.47807	149.52746
1.2121	643.39028	200.35467	144.68301
1.2137999	457.60757	203.91494	121.34077
1.2155	549.41316	214.31515	129.45265
1.2172	574.62531	233.02237	162.32352
1.2189	408.93673	236.23169	138.4714
1.2206001	446.31974	255.18176	169.09531
1.2223	495.04314	281.95688	183.88298
1.224	794.04924	321.42994	277.43214
1.2257	650.87109	321.57845	216.6557
1.2273999	478.57788	345.09103	241.87228
1.2291	284.05036	347.48073	180.42644
1.2308	713.2288	422.92926	315.41021
1.2325	357.64721	415.0416	235.15709
1.2342001	606.63798	481.38839	368.95593
1.2359	743.23239	578.72199	479.29323
1.2376	485.86525	657.18801	409.16922
